File: data.csv
ID,MA,FA,Cs,Avg Mass of A,Radius of A,Pb,Sn,Avg Mass of B,Radius of B,Br,Cl,I,Radius of X,Tolerance Factor,New Tolerance Factor,Octahedral Factor,Band gap,Del H,Del L,Voc,Jsc,FF,PCE,REF
1,1,0,0,32.065,2.7,1,0,207,1.18,0,0,1,2.06,1.03884,3.51009,0.572816,1.5,0.15,0.2,1.11,24,0.78,20.7,1
5,0.15,0.85,0,42.2412,2.7765,1,0,207,1.18,0.15,0,0.85,2.024,1.05945,3.46508,0.583004,1.55,0.4,0.18,1.14,23.7,0.78,21,3
9,1,0,0,32.065,2.7,1,0,207,1.18,0,0.05,0.95,2.0475,1.04012,3.4995,0.576313,1.55,0.1,0.47,0.92,22.4,0.82,18,6
13,0.17,0.83,0,42.00176,2.7747,1.1,0,227.7,1.298,0.167,0,0.933,2.22592,1.00342,3.52866,0.58313,1.5,0.1,0,1.16,22.5,0.68,17.6,8
17,0.17,0.83,0,42.00176,2.7747,1.1,0,227.7,1.298,0.167,0,0.933,2.22592,1.00342,3.52866,0.58313,1.5,0.14,0.2,1.06,21.4,0.77,17.5,8
21,1,0,0,32.065,2.7,1,0,207,1.18,0,0,1,2.06,1.03884,3.51009,0.572816,1.5,0.15,0.3,1.071,20.62,0.748,16.2,11
25,1,0,0,32.065,2.7,1,0,207,1.18,0,0,1,2.06,1.03884,3.51009,0.572816,1.5,0.2,0.2,1.036,19.85,0.76,16.37,14
29,0,1,0,44.037,2.79,1,0,207,1.18,0,0,1,2.06,1.05848,3.49339,0.572816,1.5,0.47,0.12,0.88,22,0.7,13.5,16
33,0.15,0.85,0,42.2412,2.7765,1,0,207,1.18,0.15,0,0.85,2.024,1.05945,3.46508,0.583004,1.73,0.18,0.43,1.05,20.94,0.69,15.17,19
37,1,0,0,32.065,2.7,1,0,207,1.18,0,0,1,2.06,1.03884,3.51009,0.572816,1.5,0.4,0.3,0.8,15.1,0.81,9.3,21
41,0.16,0.79,0.05,46.56488,2.7266,1,0,207,1.18,0.17,0,0.83,2.0192,1.04895,3.47007,0.58439,1.6,0.45,0.14,1.121,21.34,0.714,17,25
45,1,0,0,32.065,2.7,1,0,207,1.18,0,0,1,2.06,1.03884,3.51009,0.572816,1.5,0.2,0.3,0.97,21.82,0.73,15.38,28
49,0.15,0.85,0,42.2412,2.7765,1,0,207,1.18,0.15,0,0.85,2.024,1.05945,3.46508,0.583004,1.59,0.16,0.2,1.1,23.2,0.786,20.05,32
53,1,0,0,32.065,2.7,1,0,207,1.18,0.04,0,0.96,2.0504,1.03982,3.50195,0.575497,1.585,0.21,0.21,1.052,23.08,0.69,16.75,33
57,1,0,0,32.065,2.7,1,0,207,1.18,0,0,1,2.06,1.03884,3.51009,0.572816,1.5,0.15,0.3,1.07,22,0.768,18.1,34
61,0.15,0.85,0,42.2412,2.7765,1,0,207,1.18,0.15,0,0.85,2.024,1.05945,3.46508,0.583004,1.6,0.28,0.2,1.14,23.7,0.78,20.5,37
65,0,0,1,132.905,1.81,1,0,207,1.18,0,0,1,2.06,0.8446,4.33121,0.572816,1.73,0.18,0.27,1.08,18.41,0.793,15.71,40
69,1,0,0,32.065,2.7,1,0,207,1.18,0,0,1,2.06,1.03884,3.51009,0.572816,1.5,0.15,0.2,1.08,21,0.786,17.8,44
73,1,0,0,32.065,2.7,1,0,207,1.18,0,0,1,2.06,1.03884,3.51009,0.572816,1.5,0.2,0,1.039,20.71,0.704,15.15,47
77,1,0,0,32.065,2.7,1,0,207,1.18,0,0,1,2.06,1.03884,3.51009,0.572816,1.5,0.18,0.2,1.075,21.88,0.769,18.08,49
81,1,0,0,32.065,2.7,1,0,207,1.18,0,0,1,2.06,1.03884,3.51009,0.572816,1.5,0.4,0,0.95,22.44,0.771,16.4,52
85,1,0,0,32.065,2.7,1,0,207,1.18,0,0,1,2.06,1.03884,3.51009,0.572816,1.5,0.18,0.2,1.05,22.8,0.72,17.2,53
89,1,0,0,32.065,2.7,1,0,207,1.18,0,0,1,2.06,1.03884,3.51009,0.572816,1.5,0,0.2,1.03,21.4,0.75,16.5,54
93,1,0,0,32.065,2.7,1,0,207,1.18,0,0,1,2.06,1.03884,3.51009,0.572816,1.5,0.18,0.3,1.06,20.68,0.791,17.35,57
97,0.15,0.85,0,42.2412,2.7765,1,0,207,1.18,0.15,0,0.85,2.024,1.05945,3.46508,0.583004,1.73,0.32,0.18,1.114,22.042,0.698,17.14,60
101,1,0,0,32.065,2.7,1,0,207,1.18,0,0.05,0.95,2.0475,1.04012,3.4995,0.576313,1.56,0.07,0.42,1.1,22.03,0.774,18.77,61
105,1,0,0,32.065,2.7,1,0,207,1.18,0,0.05,0.95,2.0475,1.04012,3.4995,0.576313,1.56,0.07,0.3,1.04,22,0.721,16.5,61
109,1,0,0,32.065,2.7,1,0,207,1.18,0,0.05,0.95,2.0475,1.04012,3.4995,0.576313,1.5,0.16,0.22,0.938,19.58,0.726,13.34,64
113,1,0,0,32.065,2.7,1,0,207,1.18,0,0,1,2.06,1.03884,3.51009,0.572816,1.5,0.15,0.2,0.98,21.7,0.712,15.2,68
117,1,0,0,32.065,2.7,1,0,207,1.18,0,0,1,2.06,1.03884,3.51009,0.572816,1.5,0.35,0.2,0.924,18.6,0.48,8.3,70
121,0.15,0.75,0.1,51.128,2.6785,1,0,207,1.18,0.12,0,0.88,2.0312,1.03708,3.49041,0.580937,1.59,0.43,0.14,1.097,23.21,0.74,18.99,72
125,0.15,0.85,0,42.2412,2.7765,1,0,207,1.18,0.15,0,0.85,2.024,1.05945,3.46508,0.583004,1.73,0.43,0.18,1.129,23.6,0.779,20.75,74
129,1,0,0,32.065,2.7,1,0,207,1.18,0,0,1,2.06,1.03884,3.51009,0.572816,1.5,0.4,0.3,1.02,21.87,0.75,16.8,76
133,1,0,0,32.065,2.7,1,0,207,1.18,0,0,1,2.06,1.03884,3.51009,0.572816,1.5,0.1,0.32,1.09,20.9,0.72,16.5,79
137,0.15,0.85,0,42.2412,2.7765,1,0,207,1.18,0.15,0,0.85,2.024,1.05945,3.46508,0.583004,1.73,0.39,0.43,1.133,20.4,0.72,16.8,81
141,0.15,0.85,0,42.2412,2.7765,1,0,207,1.18,0.15,0,0.85,2.024,1.05945,3.46508,0.583004,1.6,0.28,0.2,1.123,22.89,0.756,19.43,82
145,1,0,0,32.065,2.7,1,0,207,1.18,0,0,1,2.06,1.03884,3.51009,0.572816,1.5,0.1,0.3,1.05,19.16,0.79,15.82,85
149,1,0,0,32.065,2.7,1,0,207,1.18,0,0,1,2.06,1.03884,3.51009,0.572816,1.5,0.4,0.3,0.87,18.31,0.79,12.68,85
153,0.15,0.85,0,42.2412,2.7765,1,0,207,1.18,0.15,0,0.85,2.024,1.05945,3.46508,0.583004,1.73,0.27,0.18,1.09,20.85,0.77,17.5,86
157,1,0,0,32.065,2.7,1,0,207,1.18,0,0,1,2.06,1.03884,3.51009,0.572816,1.5,0.15,0.2,1.02,21.44,0.77,17.05,88
161,1,0,0,32.065,2.7,1,0,207,1.18,0,0,1,2.06,1.03884,3.51009,0.572816,1.5,0.1,0,1.04,21.3,0.772,17.1,92
165,0,0,1,132.905,1.81,1,0,207,1.18,0.33,0,0.67,1.9808,0.848045,4.26409,0.595719,1.92,0.83,0.27,1.06,14.7,0.757,11.9,94
169,0,1,0,44.037,2.79,0,1,118.71,1.19,0,0,1,2.06,1.05522,3.48261,0.57767,1.4,0.7,0.28,0.4,22.17,0.662,5.9,96
173,0.14,0.81,0.05,46.80432,2.7284,1,0,207,1.18,0.15,0,0.85,2.024,1.04883,3.47379,0.583004,1.6,0.58,-0.1,1.09,22.62,0.779,19.2,97
177,1,0,0,32.065,2.7,1,0,207,1.18,0,0.05,0.95,2.0475,1.04012,3.4995,0.576313,1.55,0.06,0.37,1.06,20.7,0.75,16.3,100
181,0.16,0.79,0.05,46.56488,2.7266,1,0,207,1.18,0.17,0,0.83,2.0192,1.04895,3.47007,0.58439,0.16,0.48,0,1.076,22.7,0.78,19,104
185,1,0,0,32.065,2.7,1,0,207,1.18,0,0,1,2.06,1.03884,3.51009,0.572816,1.5,0.4,0.2,1.07,23.44,0.6125,15.38,106
189,1,0,0,32.065,2.7,0.75,0.25,184.9275,1.1825,0,0,1,2.06,1.03803,3.50762,0.574029,1.38,0.04,0.32,0.82,22.44,0.78,14.35,107
193,0,1,0,44.037,2.79,1,0,207,1.18,0,0,1,2.06,1.05848,3.49339,0.572816,1.5,0.5,0.12,1.05,23,0.721,17.4,109
197,0.13,0.74,0.1,50.04633,2.5966,1,0,207,1.18,0.13,0,0.83,1.9464,1.0275,3.43958,0.606247,1.6,0.47,0,0.994,22.68,0.625,14.09,110
201,1,0,0,32.065,2.7,1,0,207,1.18,0,0,1,2.06,1.03884,3.51009,0.572816,1.5,0.18,0,1.1,22.06,0.756,18.39,111
205,1,0,0,32.065,2.7,1,0,207,1.18,0,0,1,2.06,1.03884,3.51009,0.572816,1.5,0.17,0.2,1.12,20.5,0.76,17.5,112
209,0.135,0.765,0.1,51.30758,2.67985,1,0,207,1.18,0.15,0,0.85,2.024,1.03812,3.48401,0.583004,1.611,0.28,0.32,1.061,21.28,0.6955,15.71,113
213,1,0,0,32.065,2.7,1,0,207,1.18,0,0.05,0.95,2.0475,1.04012,3.4995,0.576313,1.55,0.01,0.25,1.11,21.66,0.77,18.51,115
217,0,1,0,44.037,2.79,0.5,0.5,162.855,1.185,0,0,1,2.06,1.05685,3.48794,0.575243,1.17,0.39,0.06,0.782,28.51,0.73,16.27,118
221,1,0,0,32.065,2.7,1,0,207,1.18,0,0,1,2.06,1.03884,3.51009,0.572816,1.5,0.21,0.37,1.05,20.71,0.7664,16.67,120
225,1,0,0,32.065,2.7,1,0,207,1.18,0,0.05,0.95,2.0475,1.04012,3.4995,0.576313,1.55,0.1,0.15,0.99,19.58,0.78,15.12,122
229,1,0,0,32.065,2.7,1,0,207,1.18,0,0,1,2.06,1.03884,3.51009,0.572816,1.5,0.15,0.2,1.1,20.5,0.78,17.6,126
233,0.153,0.747,0.1,51.0921,2.67823,1,0,207,1.18,0.17,0,0.83,2.0192,1.03825,3.48031,0.58439,1.57,0.16,0.06,1.12,23.15,0.7339,19.03,127
237,0.153,0.747,0.1,51.0921,2.67823,1,0,207,1.18,0.17,0,0.83,2.0192,1.03825,3.48031,0.58439,1.57,0.15,0.06,1.09,23.16,0.7088,17.88,127
241,1,0,0,32.065,2.7,1,0,207,1.18,0,0,1,2.06,1.03884,3.51009,0.572816,1.69,0.45,0.27,1.16,22.3,0.752,19.42,129
245,1,0,0,32.065,2.7,1,0,207,1.18,0,0,1,2.06,1.03884,3.51009,0.572816,1.5,0.18,0.2,1.1,21.9,0.741,17.8,130
249,1,0,0,32.065,2.7,1,0,207,1.18,0,0,1,2.06,1.03884,3.51009,0.572816,1.5,0.18,0.32,1.05,22.5,0.718,17.1,133
253,0.7,0.3,0,35.6566,2.727,1,0,207,1.18,0,0,1,2.06,1.04473,3.50457,0.572816,1.57,0.201,0.27,1.082,22.51,0.815,19.85,135
257,0.7,0.3,0,35.6566,2.727,1,0,207,1.18,0,0,1,2.06,1.04473,3.50457,0.572816,1.57,0.134,0.27,1.065,21.88,0.744,17.33,135
261,1,0,0,32.065,2.7,1,0,207,1.18,0,0,1,2.06,1.03884,3.51009,0.572816,1.5,0.1,0.6,1.04,20.4,0.68,15.1,136
265,1,0,0,32.065,2.7,1,0,207,1.18,0,0,1,2.06,1.03884,3.51009,0.572816,1.55,0.42,0.02,1.011,20.5,0.638,13.2,137
269,1,0,0,32.065,2.7,1,0,207,1.18,0,0,1,2.06,1.03884,3.51009,0.572816,1.55,0.05,0.26,1.1,21.78,0.7763,18.67,140
273,1,0,0,32.065,2.7,1,0,207,1.18,0,0.33,0.67,1.9775,1.0475,3.44017,0.596713,1.55,0.1,0.25,0.84,22.056,0.63155,11.7,141
277,0.15,0.85,0,42.2412,2.7765,1,0,207,1.18,0.15,0,0.85,2.024,1.05945,3.46508,0.583004,1.6,0.39,0.1,1.13,23.87,0.76,20.6,143
281,1,0,0,32.065,2.7,1,0,207,1.18,0,0,1,2.06,1.03884,3.51009,0.572816,1.5,0.21,0.1,0.965,21.7,0.7,14.65,147
285,0.15,0.85,0,42.2412,2.7765,1,0,207,1.18,0.15,0,0.85,2.024,1.05945,3.46508,0.583004,1.6,0.43,0.15,1.13,23.52,0.76,20.2,148
289,1,0,0,32.065,2.7,1,0,207,1.18,0,0,1,2.06,1.03884,3.51009,0.572816,1.5,0.2,0.1,1.1,22.3,0.77,18.9,150
293,1,0,0,32.065,2.7,1,0,207,1.18,0,0.05,0.95,2.0475,1.04012,3.4995,0.576313,1.55,0.08,0.17,0.9,18.5,0.8,13.3,153
297,0.15,0.85,0,42.2412,2.7765,1,0,207,1.18,0.15,0,0.85,2.024,1.05945,3.46508,0.583004,1.58,0.06,0.3,1.14,23.4,0.823,22,156
301,1,0,0,32.065,2.7,1,0,207,1.18,0,0,1,2.06,1.03884,3.51009,0.572816,1.5,0.16,0.2,1.07,19.1,0.787,16.08,157
305,1,0,0,32.065,2.7,1,0,207,1.18,0,0.05,0.95,2.0475,1.04012,3.4995,0.576313,1.7,0.42,0.6,1.07,21.83,0.78,18.23,159
309,0.5,0.5,0,38.051,2.745,0.5,0.5,162.855,1.185,0,0,1,2.06,1.04704,3.49596,0.575243,1.25,0.2,0.35,0.67,28.35,0.74,14.18,161
313,0,0.98,0.02,45.81436,2.7704,1,0,207,1.18,0,0,1,2.06,1.0542,3.49662,0.572816,1.48,0.95,0,0.985,23.35,0.688,15.83,163
317,0.1235,0.8265,0.05,47.0019,2.729885,1,0,207,1.18,0.13,0,0.87,2.0288,1.04865,3.47756,0.581625,1.63,0.63,0.12,1.168,22.51,0.776,20.4,165
321,1,0,0,32.065,2.7,1,0,207,1.18,0,0.05,0.95,2.0475,1.04012,3.4995,0.576313,1.5,0.3,0.1,0.94,19.6,0.77,14.2,166
325,1,0,0,32.065,2.7,1,0,207,1.18,0,0,1,2.06,1.03884,3.51009,0.572816,1.5,0.1,0.3,1.075,21.296,0.664,15.2,169
329,1,0,0,32.065,2.7,1,0,207,1.18,0,0,1,2.06,1.03884,3.51009,0.572816,1.45,0.06,0.11,1.06,22.35,0.75,17.78,172
333,0.17,0.83,0,42.00176,2.7747,1,0,207,1.18,0.17,0,0.83,2.0192,1.05958,3.46132,0.58439,1.56,0.63,0.02,1.12,21.06,0.704,16.6,175