File: Final Data for ML Models.csv
ID,MA,FA,Cs,Radius of A,Pb,Sn,Radius of B,Br,Cl,I,Radius of X,Tolerance Factor,Band gap,Del H,Del L,Voc,Jsc,FF,PCE,REF,ELECTRODE,PLANAR/INVERTED,TCO
1,1,0,0,2.7,1,0,1.18,0,0,1,2.06,1.03884,1.5,0.15,0.2,1.11,24,0.78,20.7,1,Cu,I,ITO
5,0.15,0.85,0,2.7765,1,0,1.18,0.15,0,0.85,2.024,1.05945,1.55,0.4,0.18,1.14,23.7,0.78,21,3,Cu,I,ITO
9,1,0,0,2.7,1,0,1.18,0,0.05,0.95,2.0475,1.04012,1.55,0.1,0.47,0.92,22.4,0.82,18,6,Al,P,FTO
13,0.17,0.83,0,2.7747,1.1,0,1.298,0.167,0,0.933,2.22592,1.00342,1.5,0.1,0,1.16,22.5,0.68,17.6,8,Au,I,ITO
17,0.17,0.83,0,2.7747,1.1,0,1.298,0.167,0,0.933,2.22592,1.00342,1.5,0.14,0.2,1.06,21.4,0.77,17.5,8,Au,I,ITO
21,1,0,0,2.7,1,0,1.18,0,0,1,2.06,1.03884,1.5,0.15,0.3,1.071,20.62,0.748,16.2,11,Ag,I,FTO
25,1,0,0,2.7,1,0,1.18,0,0,1,2.06,1.03884,1.5,0.2,0.2,1.036,19.85,0.76,16.37,14,Au,P,FTO
29,0,1,0,2.79,1,0,1.18,0,0,1,2.06,1.05848,1.5,0.47,0.12,0.88,22,0.7,13.5,16,Au,P,FTO
33,0.15,0.85,0,2.7765,1,0,1.18,0.15,0,0.85,2.024,1.05945,1.73,0.18,0.43,1.05,20.94,0.69,15.17,19,Au,P,FTO
37,1,0,0,2.7,1,0,1.18,0,0,1,2.06,1.03884,1.5,0.4,0.3,0.8,15.1,0.81,9.3,21,Ag,I,ITO
41,0.16,0.79,0.05,2.7266,1,0,1.18,0.17,0,0.83,2.0192,1.04895,1.6,0.45,0.14,1.121,21.34,0.714,17,25,Au,P,FTO
45,1,0,0,2.7,1,0,1.18,0,0,1,2.06,1.03884,1.5,0.18,0.2,1.05,21.6,0.67,15.3,27,Au,P,ITO
49,1,0,0,2.7,1,0,1.18,0,0,1,2.06,1.03884,1.5,0.18,0.2,1.05,22.5,0.8,18.338,31,Au,P,FTO
53,1,0,0,2.7,1,0,1.18,0.05,0,0.95,2.048,1.04007,1.591,0.213,0.213,1.064,23.52,0.72,18.02,33,Au,P,FTO
57,1,0,0,2.7,1,0,1.18,0,0,1,2.06,1.03884,1.5,0.15,0.3,1.07,22,0.768,18.1,34,Al,I,ITO
61,0.15,0.85,0,2.7765,1,0,1.18,0.15,0,0.85,2.024,1.05945,1.6,0.28,0.2,1.14,23.7,0.78,20.5,37,Au,P,FTO
65,0,0,1,1.81,1,0,1.18,0,0,1,2.06,0.8446,1.73,0.18,0.27,1.08,18.41,0.793,15.71,40,Au,P,ITO
69,1,0,0,2.7,1,0,1.18,0,0,1,2.06,1.03884,1.5,0.15,0.2,1.08,21,0.786,17.8,44,Cu,I,ITO
73,1,0,0,2.7,1,0,1.18,0,0,1,2.06,1.03884,1.5,0.2,0,1.039,20.71,0.704,15.15,47,Au,P,FTO
77,1,0,0,2.7,1,0,1.18,0,0,1,2.06,1.03884,1.5,0.18,0.2,1.075,21.88,0.769,18.08,49,Au,P,FTO
81,1,0,0,2.7,1,0,1.18,0,0,1,2.06,1.03884,1.5,0.4,0,0.95,22.44,0.771,16.4,52,Al,I,FTO
85,1,0,0,2.7,1,0,1.18,0,0,1,2.06,1.03884,1.5,0.18,0.2,1.05,22.8,0.72,17.2,53,Au,P,FTO
89,1,0,0,2.7,1,0,1.18,0,0,1,2.06,1.03884,1.5,0,0.2,1.03,21.4,0.75,16.5,54,Cu,I,ITO
93,1,0,0,2.7,1,0,1.18,0,0,1,2.06,1.03884,1.5,0.18,0.3,1.06,20.68,0.791,17.35,57,Au,I,ITO
97,0.15,0.85,0,2.7765,1,0,1.18,0.15,0,0.85,2.024,1.05945,1.73,0.32,0.18,1.114,22.042,0.698,17.14,60,Au,P,FTO
101,1,0,0,2.7,1,0,1.18,0,0.05,0.95,2.0475,1.04012,1.56,0.07,0.42,1.1,22.03,0.774,18.77,61,Au,P,ITO
105,1,0,0,2.7,1,0,1.18,0,0.05,0.95,2.0475,1.04012,1.56,0.07,0.3,1.04,22,0.721,16.5,61,Au,P,ITO
109,1,0,0,2.7,1,0,1.18,0,0.05,0.95,2.0475,1.04012,1.5,0.16,0.22,0.938,19.58,0.726,13.34,64,Au,P,FTO
113,1,0,0,2.7,1,0,1.18,0,0,1,2.06,1.03884,1.5,0.15,0.2,0.98,21.7,0.712,15.2,68,Au,P,ITO
117,1,0,0,2.7,1,0,1.18,0,0,1,2.06,1.03884,1.5,0.35,0.2,0.924,18.6,0.48,8.3,70,Au,P,FTO
121,0.15,0.75,0.1,2.6785,1,0,1.18,0.12,0,0.88,2.0312,1.03708,1.59,0.43,0.14,1.097,23.21,0.74,18.99,72,Au,P,ITO
125,0.15,0.85,0,2.7765,1,0,1.18,0.15,0,0.85,2.024,1.05945,1.73,0.43,0.18,1.129,23.6,0.779,20.75,74,Au,P,FTO
129,1,0,0,2.7,1,0,1.18,0,0,1,2.06,1.03884,1.5,0.4,0.3,1.02,21.87,0.75,16.8,76,Ag,I,ITO
133,1,0,0,2.7,1,0,1.18,0,0,1,2.06,1.03884,1.5,0.1,0.32,1.09,20.9,0.72,16.5,79,Ag,P,FTO
137,0.15,0.85,0,2.7765,1,0,1.18,0.15,0,0.85,2.024,1.05945,1.73,0.39,0.43,1.133,20.4,0.72,16.8,81,Au,P,FTO
141,0.15,0.85,0,2.7765,1,0,1.18,0.15,0,0.85,2.024,1.05945,1.6,0.28,0.2,1.123,22.89,0.756,19.43,82,Au,P,FTO
145,1,0,0,2.7,1,0,1.18,0,0,1,2.06,1.03884,1.5,0.1,0.3,1.05,19.16,0.79,15.82,85,Al,I,ITO
149,1,0,0,2.7,1,0,1.18,0,0,1,2.06,1.03884,1.5,0.4,0.3,0.87,18.31,0.79,12.68,85,Al,I,ITO
153,0.15,0.85,0,2.7765,1,0,1.18,0.15,0,0.85,2.024,1.05945,1.73,0.27,0.18,1.09,20.85,0.77,17.5,86,Au,P,FTO
157,1,0,0,2.7,1,0,1.18,0,0,1,2.06,1.03884,1.5,0.15,0.2,1.02,21.44,0.77,17.05,88,Au,P,FTO
161,1,0,0,2.7,1,0,1.18,0,0,1,2.06,1.03884,1.5,0.1,0,1.04,21.3,0.772,17.1,92,Ag,I,FTO
165,0,0,1,1.81,1,0,1.18,0.33,0,0.67,1.9808,0.848045,1.92,0.83,0.27,1.06,14.7,0.757,11.9,94,Ag,P,ITO
169,0,1,0,2.79,0,1,1.19,0,0,1,2.06,1.05522,1.4,0.7,0.28,0.4,22.17,0.662,5.9,96,Ag,P,ITO
173,1,0,0,2.7,1,0,1.18,0,0,1,2.06,1.03884,1.5,0.15,0.2,1.07,22.7,0.775,18.8,99,Au,P,FTO
177,0.15,0.85,0,2.7765,1,0,1.18,0.15,0,0.85,2.024,1.05945,1.73,0.43,0.18,1.16,23.18,0.79,21.31,102,Au,P,FTO
181,0.95,0,0.05,2.6555,1,0,1.18,0,0,1,2.06,1.02912,1.51,0.49,0.08,1.01,8.69,0.726,6.29,105,Al,I,ITO
185,1,0,0,2.7,1,0,1.18,0,0,1,2.06,1.03884,1.5,0.5,0.3,1,18.52,0.78,14.45,107,Ag,I,ITO
189,0.13,0.74,0.1,2.5966,1,0,1.18,0.13,0,0.83,1.9464,1.0275,1.6,0.48,0,1.097,22.59,0.758,18.77,110,Au,P,FTO
193,0.13,0.74,0.1,2.5966,1,0,1.18,0.13,0,0.83,1.9464,1.0275,1.6,0.38,0,0.972,8.67,0.727,6.12,110,Au,P,FTO
197,0.16,0.79,0.05,2.7266,1,0,1.18,0.17,0,0.83,2.0192,1.04895,1.6,0.34,0.14,1.15,21.4,0.72,17.8,112,Au,P,FTO
201,0.14,0.81,0.05,2.7284,1,0,1.18,0.15,0,0.85,2.024,1.04883,1.612,0.18,0.41,1.054,21.7,0.7548,17.1,113,Au,P,FTO
205,1,0,0,2.7,1,0,1.18,0,0.05,0.95,2.0475,1.04012,1.55,0.08,0.25,1.08,21.45,0.74,17.14,115,Au,P,FTO
209,0,1,0,2.79,0.5,0.5,1.185,0,0,1,2.06,1.05685,1.17,0.5,0.06,0.61,27.79,0.68,11.6,118,Al,I,ITO
213,1,0,0,2.7,1,0,1.18,0,0,1,2.06,1.03884,1.5,0.16,0.37,1.04,20.4,0.756,16.04,120,Au,P,ITO
217,1,0,0,2.7,1,0,1.18,0,0,1,2.06,1.03884,1.5,0,0.3,1.048,20.03,0.591,12.43,123,Ag,I,ITO
221,0.153,0.747,0.1,2.67823,1,0,1.18,0.17,0,0.83,2.0192,1.03825,1.57,0.14,0.06,1.13,23.62,0.7666,20.47,127,Au,P,FTO
225,0.153,0.747,0.1,2.67823,1,0,1.18,0.17,0,0.83,2.0192,1.03825,1.57,0.16,0.14,1.11,23.52,0.7506,19.6,127,Au,P,FTO
229,0.153,0.747,0.1,2.67823,1,0,1.18,0.17,0,0.83,2.0192,1.03825,1.57,0.16,0.36,1.07,21.9,0.7138,16.76,127,Au,P,FTO
233,1,0,0,2.7,1,0,1.18,0,0,1,2.06,1.03884,1.69,0.45,0.64,1.1,22.1,0.742,18.04,129,Cu,I,ITO
237,0.155,0.787,0.058,2.71921,1,0,1.18,0.22,0,0.78,2.0072,1.04859,1.62,0.33,0.25,1.134,21.36,0.769,18.64,131,Au,P,FTO
241,0.15,0.85,0,2.7765,1,0,1.18,0.05,0,0.95,2.048,1.05683,1.6,0.28,0.2,1.1,20.7,0.706,16.1,134,Au,P,FTO
245,0.7,0.3,0,2.727,1,0,1.18,0,0,1,2.06,1.04473,1.57,0.19,0.27,1.079,22.2,0.781,18.71,135,Au,P,FTO
249,0.7,0.3,0,2.727,1,0,1.18,0,0,1,2.06,1.04473,1.57,0.105,0.27,1.058,21.73,0.724,16.65,135,Au,P,FTO
253,1,0,0,2.7,1,0,1.18,0,0,1,2.06,1.03884,1.55,0.42,0.17,1.061,20.7,0.647,14.2,137,Au,P,FTO
257,1,0,0,2.7,1,0,1.18,0,0,1,2.06,1.03884,1.55,0.42,0.04,0.985,19.9,0.573,11.2,137,Au,P,FTO
261,1,0,0,2.7,1,0,1.18,0,0,1,2.06,1.03884,1.55,0.08,0.26,1.09,22.24,0.7891,18.81,140,Au,P,ITO
265,1,0,0,2.7,1,0,1.18,0,0,0.95,1.957,1.04973,1.6,0.08,0.2,1.13,19,0.71,16,142,Au,P,FTO
269,0.7,0.3,0,2.727,1,0,1.18,0,0.1,0.9,2.035,1.04735,1.5,0,0,1.1,18.55,0.5336,10.7,144,Ag,I,ITO
273,1,0,0,2.7,1,0,1.18,0,0,1,2.06,1.03884,1.5,0.21,0.03,0.9645,21.5,0.7,14.51,147,Ag,P,ITO
277,0.15,0.85,0,2.7765,1,0,1.18,0.15,0,0.85,2.024,1.05945,1.6,0.51,0.15,1.08,22.01,0.65,15.5,148,Au,P,FTO
281,1,0,0,2.7,1,0,1.18,0,0,1,2.06,1.03884,1.5,0.2,0.32,1.06,21.8,0.706,16.3,150,Au,P,FTO
285,1,0,0,2.7,1,0,1.18,0,0,1,2.06,1.03884,1.5,0.22,0.3,1.07,20.15,0.77,16.6,154,Al,I,ITO
289,0.15,0.85,0,2.7765,1,0,1.18,0.15,0,0.85,2.024,1.05945,1.58,0.05,0.3,1.13,23.4,0.703,18.6,156,Au,P,FTO
293,1,0,0,2.7,1,0,1.18,0,0,1,2.06,1.03884,1.5,0.3,0.2,1.06,20.24,0.753,16.15,157,Ag,P,ITO
297,1,0,0,2.7,1,0,1.18,0,0,1,2.06,1.03884,1.5,0.15,0.1,1.12,22.28,0.812,20.26,160,Ag,I,ITO
301,0.15,0.85,0,2.7765,1,0,1.18,0.15,0,0.85,2.024,1.05945,1.5,0.2,0.2,1.13,22.92,0.7805,20.2,162,Au,P,FTO
305,0,0.98,0.02,2.7704,1,0,1.18,0,0,1,2.06,1.0542,1.48,0.68,0,0.978,22.67,0.716,15.87,163,Carbon,P,ITO
309,0.1235,0.8265,0.05,2.729885,1,0,1.18,0.13,0,0.87,2.0288,1.04865,1.63,0.63,0.05,1.135,21.83,0.684,16.95,165,Au,P,FTO
313,1,0,0,2.7,1,0,1.18,0,0,1,2.06,1.03884,1.5,0.1,0.6,1,21.7,0.758,16.6,167,Ag,I,ITO
317,1,0,0,2.7,1,0,1.18,0,0.05,0.95,2.0475,1.04012,1.6,0.3,0,0.98,22.61,0.77,17.06,171,Ag,I,ITO
321,0,0,1,1.81,1,0,1.18,0.33,0,0.67,1.9808,0.848045,1.92,0.86,0.06,1.23,16.79,0.7781,16.07,173,Au,P,ITO
323,0.17,0.83,0,2.7747,1,0,1.18,0.17,0,0.83,2.0192,1.05958,1.56,0.63,0.02,1.12,21.06,0.704,16.6,175,Au,P,FTO